X-location Z-location Resistivity
        3.750         0.000      12.2140
        6.250         0.000      20.3610
        8.750         0.000      18.1150
       11.250         0.000      34.2280
       13.750         0.000      30.3430
       16.250         0.000     168.0400
       18.750         0.000      82.6250
       21.250         0.000     500.3800
       23.750         0.000     413.4100
       26.250         0.000    1080.5000
       28.750         0.000     718.0100
       31.250         0.000    1255.5000
       33.750         0.000     209.1500
       36.250         0.000     619.2800
       38.750         0.000      55.6000
       41.250         0.000     561.6000
       43.750         0.000     177.8100
       46.250         0.000     262.4200
       48.750         0.000      50.6870
       51.250         0.000     194.0100
       53.750         0.000      29.0340
       56.250         0.000     333.3100
       58.750         0.000      71.9900
       61.250         0.000     626.7200
       63.750         0.000      42.4720
       66.250         0.000     768.9600
       68.750         0.000     222.8100
       71.250         0.000    1238.1000
       73.750         0.000     254.3500
       76.250         0.000    1871.0000
       78.750         0.000     280.6600
       81.250         0.000    2950.8999
       83.750         0.000      64.7360
       86.250         0.000     497.3600
       88.750         0.000      86.2840
       91.250         0.000    1797.2000
       93.750         0.000     575.4300
       96.250         0.000    5311.2002
       98.750         0.000     128.1700
      101.250         0.000     272.2700
      103.750         0.000     111.1200
      106.250         0.000     158.7700
      108.750         0.000     124.7900
      111.250         0.000     172.3000
      113.750         0.000      14.0580
      116.250         0.000     184.6900
      118.750         0.000      11.9880
      121.250         0.000     196.1900
      123.750         0.000      14.4940
      126.250         0.000     500.3300
      128.750         0.000      20.0590
      131.250         0.000    1411.3000
      133.750         0.000      26.3870
      136.250         0.000    1515.9000
      138.750         0.000      16.3580
      141.250         0.000    1525.7000
      143.750         0.000      17.3050
      146.250         0.000     957.4000
      148.750         0.000      14.3880
      151.250         0.000     831.0000
      153.750         0.000      18.0560
      156.250         0.000    1582.2000
      158.750         0.000      13.1730
      161.250         0.000     301.1900
      163.750         0.000     319.4600
      166.250         0.000       6.2025
      168.750         0.000     572.8200
      171.250         0.000       5.2688
      173.750         0.000     726.4300
      176.250         0.000       4.3565
      178.750         0.000     368.5900
      181.250         0.000       4.5198
      183.750         0.000     475.5800
      186.250         0.000       7.6302
      188.750         0.000     459.4000
      191.250         0.000       7.8267
      193.750         0.000     359.7000
      196.250         0.000       7.4017
      198.750         0.000     225.4200
      201.250         0.000       7.5094
      203.750         0.000     117.6100
      206.250         0.000      10.9950
      208.750         0.000     121.0500
      211.250         0.000       9.5569
      213.750         0.000      80.8720
      216.250         0.000       8.4339
      218.750         0.000     161.6400
      221.250         0.000     185.3700
      223.750         0.000     852.9900
      226.250         0.000    1297.6000
      228.750         0.000    5796.7002
      231.250         0.000    3936.6001
        3.750        -0.312      12.2140
        6.250        -0.312      20.3610
        8.750        -0.312      18.1150
       11.250        -0.312      34.2280
       13.750        -0.312      30.3430
       16.250        -0.312     168.0400
       18.750        -0.312      82.6250
       21.250        -0.312     500.3800
       23.750        -0.312     413.4100
       26.250        -0.312    1080.5000
       28.750        -0.312     718.0100
       31.250        -0.312    1255.5000
       33.750        -0.312     209.1500
       36.250        -0.312     619.2800
       38.750        -0.312      55.6000
       41.250        -0.312     561.6000
       43.750        -0.312     177.8100
       46.250        -0.312     262.4200
       48.750        -0.312      50.6870
       51.250        -0.312     194.0100
       53.750        -0.312      29.0340
       56.250        -0.312     333.3100
       58.750        -0.312      71.9900
       61.250        -0.312     626.7200
       63.750        -0.312      42.4720
       66.250        -0.312     768.9600
       68.750        -0.312     222.8100
       71.250        -0.312    1238.1000
       73.750        -0.312     254.3500
       76.250        -0.312    1871.0000
       78.750        -0.312     280.6600
       81.250        -0.312    2950.8999
       83.750        -0.312      64.7360
       86.250        -0.312     497.3600
       88.750        -0.312      86.2840
       91.250        -0.312    1797.2000
       93.750        -0.312     575.4300
       96.250        -0.312    5311.2002
       98.750        -0.312     128.1700
      101.250        -0.312     272.2700
      103.750        -0.312     111.1200
      106.250        -0.312     158.7700
      108.750        -0.312     124.7900
      111.250        -0.312     172.3000
      113.750        -0.312      14.0580
      116.250        -0.312     184.6900
      118.750        -0.312      11.9880
      121.250        -0.312     196.1900
      123.750        -0.312      14.4940
      126.250        -0.312     500.3300
      128.750        -0.312      20.0590
      131.250        -0.312    1411.3000
      133.750        -0.312      26.3870
      136.250        -0.312    1515.9000
      138.750        -0.312      16.3580
      141.250        -0.312    1525.7000
      143.750        -0.312      17.3050
      146.250        -0.312     957.4000
      148.750        -0.312      14.3880
      151.250        -0.312     831.0000
      153.750        -0.312      18.0560
      156.250        -0.312    1582.2000
      158.750        -0.312      13.1730
      161.250        -0.312     301.1900
      163.750        -0.312     319.4600
      166.250        -0.312       6.2025
      168.750        -0.312     572.8200
      171.250        -0.312       5.2688
      173.750        -0.312     726.4300
      176.250        -0.312       4.3565
      178.750        -0.312     368.5900
      181.250        -0.312       4.5198
      183.750        -0.312     475.5800
      186.250        -0.312       7.6302
      188.750        -0.312     459.4000
      191.250        -0.312       7.8267
      193.750        -0.312     359.7000
      196.250        -0.312       7.4017
      198.750        -0.312     225.4200
      201.250        -0.312       7.5094
      203.750        -0.312     117.6100
      206.250        -0.312      10.9950
      208.750        -0.312     121.0500
      211.250        -0.312       9.5569
      213.750        -0.312      80.8720
      216.250        -0.312       8.4339
      218.750        -0.312     161.6400
      221.250        -0.312     185.3700
      223.750        -0.312     852.9900
      226.250        -0.312    1297.6000
      228.750        -0.312    5796.7002
      231.250        -0.312    3936.6001
        3.750        -0.625      12.2140
        6.250        -0.625      20.3610
        8.750        -0.625      18.1150
       11.250        -0.625      34.2280
       13.750        -0.625      30.3430
       16.250        -0.625     168.0400
       18.750        -0.625      82.6250
       21.250        -0.625     500.3800
       23.750        -0.625     413.4100
       26.250        -0.625    1080.5000
       28.750        -0.625     718.0100
       31.250        -0.625    1255.5000
       33.750        -0.625     209.1500
       36.250        -0.625     619.2800
       38.750        -0.625      55.6000
       41.250        -0.625     561.6000
       43.750        -0.625     177.8100
       46.250        -0.625     262.4200
       48.750        -0.625      50.6870
       51.250        -0.625     194.0100
       53.750        -0.625      29.0340
       56.250        -0.625     333.3100
       58.750        -0.625      71.9900
       61.250        -0.625     626.7200
       63.750        -0.625      42.4720
       66.250        -0.625     768.9600
       68.750        -0.625     222.8100
       71.250        -0.625    1238.1000
       73.750        -0.625     254.3500
       76.250        -0.625    1871.0000
       78.750        -0.625     280.6600
       81.250        -0.625    2950.8999
       83.750        -0.625      64.7360
       86.250        -0.625     497.3600
       88.750        -0.625      86.2840
       91.250        -0.625    1797.2000
       93.750        -0.625     575.4300
       96.250        -0.625    5311.2002
       98.750        -0.625     128.1700
      101.250        -0.625     272.2700
      103.750        -0.625     111.1200
      106.250        -0.625     158.7700
      108.750        -0.625     124.7900
      111.250        -0.625     172.3000
      113.750        -0.625      14.0580
      116.250        -0.625     184.6900
      118.750        -0.625      11.9880
      121.250        -0.625     196.1900
      123.750        -0.625      14.4940
      126.250        -0.625     500.3300
      128.750        -0.625      20.0590
      131.250        -0.625    1411.3000
      133.750        -0.625      26.3870
      136.250        -0.625    1515.9000
      138.750        -0.625      16.3580
      141.250        -0.625    1525.7000
      143.750        -0.625      17.3050
      146.250        -0.625     957.4000
      148.750        -0.625      14.3880
      151.250        -0.625     831.0000
      153.750        -0.625      18.0560
      156.250        -0.625    1582.2000
      158.750        -0.625      13.1730
      161.250        -0.625     301.1900
      163.750        -0.625     319.4600
      166.250        -0.625       6.2025
      168.750        -0.625     572.8200
      171.250        -0.625       5.2688
      173.750        -0.625     726.4300
      176.250        -0.625       4.3565
      178.750        -0.625     368.5900
      181.250        -0.625       4.5198
      183.750        -0.625     475.5800
      186.250        -0.625       7.6302
      188.750        -0.625     459.4000
      191.250        -0.625       7.8267
      193.750        -0.625     359.7000
      196.250        -0.625       7.4017
      198.750        -0.625     225.4200
      201.250        -0.625       7.5094
      203.750        -0.625     117.6100
      206.250        -0.625      10.9950
      208.750        -0.625     121.0500
      211.250        -0.625       9.5569
      213.750        -0.625      80.8720
      216.250        -0.625       8.4339
      218.750        -0.625     161.6400
      221.250        -0.625     185.3700
      223.750        -0.625     852.9900
      226.250        -0.625    1297.6000
      228.750        -0.625    5796.7002
      231.250        -0.625    3936.6001
        3.750        -1.938     715.5900
        6.250        -1.938     216.3400
        8.750        -1.938    1377.8000
       11.250        -1.938    4011.3000
       13.750        -1.938    3933.3000
       16.250        -1.938    2959.2000
       18.750        -1.938    2133.1001
       21.250        -1.938     587.5000
       23.750        -1.938     492.6800
       26.250        -1.938   13236.0000
       28.750        -1.938   12596.0000
       31.250        -1.938     703.0100
       33.750        -1.938     237.6700
       36.250        -1.938     248.2000
       38.750        -1.938     148.4400
       41.250        -1.938     288.8600
       43.750        -1.938     196.7600
       46.250        -1.938     167.2600
       48.750        -1.938      55.1860
       51.250        -1.938     200.5900
       53.750        -1.938     138.8600
       56.250        -1.938     122.4200
       58.750        -1.938      75.9910
       61.250        -1.938     565.8300
       63.750        -1.938     125.3800
       66.250        -1.938     664.0000
       68.750        -1.938     242.3100
       71.250        -1.938    1150.4000
       73.750        -1.938     367.0500
       76.250        -1.938     834.2600
       78.750        -1.938     523.8300
       81.250        -1.938     696.5200
       83.750        -1.938      59.8800
       86.250        -1.938     569.0000
       88.750        -1.938      65.8050
       91.250        -1.938    2269.1001
       93.750        -1.938     605.8500
       96.250        -1.938     696.6200
       98.750        -1.938     293.9200
      101.250        -1.938     269.0100
      103.750        -1.938      80.9890
      106.250        -1.938     487.8500
      108.750        -1.938      15.2010
      111.250        -1.938     179.3800
      113.750        -1.938     135.4400
      116.250        -1.938     202.1300
      118.750        -1.938     203.4500
      121.250        -1.938     346.1500
      123.750        -1.938     252.3100
      126.250        -1.938     480.6700
      128.750        -1.938     290.8100
      131.250        -1.938    1452.8000
      133.750        -1.938     465.8500
      136.250        -1.938    1533.5000
      138.750        -1.938     255.6700
      141.250        -1.938    1482.8000
      143.750        -1.938     207.3400
      146.250        -1.938     923.2600
      148.750        -1.938      26.6820
      151.250        -1.938     789.4400
      153.750        -1.938      21.0970
      156.250        -1.938    1655.9000
      158.750        -1.938      89.3690
      161.250        -1.938     380.0500
      163.750        -1.938     385.0900
      166.250        -1.938      73.4380
      168.750        -1.938     573.3200
      171.250        -1.938      38.1220
      173.750        -1.938     728.2900
      176.250        -1.938      22.1530
      178.750        -1.938     355.4900
      181.250        -1.938      72.0860
      183.750        -1.938     464.2800
      186.250        -1.938     326.5800
      188.750        -1.938     448.0700
      191.250        -1.938     312.6700
      193.750        -1.938     406.5300
      196.250        -1.938     320.0800
      198.750        -1.938     244.4200
      201.250        -1.938     280.1800
      203.750        -1.938     486.8400
      206.250        -1.938     492.3100
      208.750        -1.938     435.0800
      211.250        -1.938     369.6100
      213.750        -1.938     357.7000
      216.250        -1.938     404.9800
      218.750        -1.938     413.6900
      221.250        -1.938      33.0100
      223.750        -1.938     614.3900
      226.250        -1.938     116.6700
      228.750        -1.938     221.3500
      231.250        -1.938     218.5800
        3.750        -3.381     779.1300
        6.250        -3.381     421.6700
        8.750        -3.381    1099.2000
       11.250        -3.381    3766.2000
       13.750        -3.381    3841.2000
       16.250        -3.381    3224.8999
       18.750        -3.381    3021.8000
       21.250        -3.381    3120.7000
       23.750        -3.381    3984.8000
       26.250        -3.381   13232.0000
       28.750        -3.381   12009.0000
       31.250        -3.381     813.1400
       33.750        -3.381     549.6300
       36.250        -3.381     475.1000
       38.750        -3.381     335.4400
       41.250        -3.381     293.6700
       43.750        -3.381     210.3800
       46.250        -3.381     158.6400
       48.750        -3.381     143.0900
       51.250        -3.381     235.4200
       53.750        -3.381     214.1000
       56.250        -3.381     129.0400
       58.750        -3.381     128.8400
       61.250        -3.381     254.7900
       63.750        -3.381     125.7300
       66.250        -3.381     259.5500
       68.750        -3.381     179.3600
       71.250        -3.381     422.2000
       73.750        -3.381     365.8800
       76.250        -3.381     499.9000
       78.750        -3.381     498.3100
       81.250        -3.381     475.1900
       83.750        -3.381     237.4800
       86.250        -3.381     596.3500
       88.750        -3.381      56.2620
       91.250        -3.381    1846.4000
       93.750        -3.381     436.4300
       96.250        -3.381     240.3000
       98.750        -3.381     277.9300
      101.250        -3.381     232.0100
      103.750        -3.381      91.5140
      106.250        -3.381     516.6500
      108.750        -3.381      11.9040
      111.250        -3.381     187.1400
      113.750        -3.381     170.4000
      116.250        -3.381     181.4700
      118.750        -3.381     185.2900
      121.250        -3.381     294.7900
      123.750        -3.381     239.0300
      126.250        -3.381     241.6200
      128.750        -3.381     266.8600
      131.250        -3.381    1248.3000
      133.750        -3.381     453.8700
      136.250        -3.381    1106.2000
      138.750        -3.381     248.2900
      141.250        -3.381     673.5100
      143.750        -3.381     233.6900
      146.250        -3.381     479.4200
      148.750        -3.381     131.9500
      151.250        -3.381     502.8800
      153.750        -3.381     131.6500
      156.250        -3.381    1596.8000
      158.750        -3.381     253.3800
      161.250        -3.381     395.6100
      163.750        -3.381     396.2600
      166.250        -3.381     164.7700
      168.750        -3.381     435.7100
      171.250        -3.381     143.5900
      173.750        -3.381     598.8700
      176.250        -3.381     136.4600
      178.750        -3.381     239.2100
      181.250        -3.381     126.0300
      183.750        -3.381     305.7000
      186.250        -3.381     299.8800
      188.750        -3.381     284.1100
      191.250        -3.381     281.7900
      193.750        -3.381     358.6300
      196.250        -3.381     296.8500
      198.750        -3.381     232.7600
      201.250        -3.381     285.3700
      203.750        -3.381     485.7600
      206.250        -3.381     487.1200
      208.750        -3.381     430.7400
      211.250        -3.381     385.9400
      213.750        -3.381     384.3600
      216.250        -3.381     462.4100
      218.750        -3.381     405.2800
      221.250        -3.381     114.7700
      223.750        -3.381     451.2900
      226.250        -3.381     115.5500
      228.750        -3.381     133.4400
      231.250        -3.381     128.8400
        6.250        -4.969     590.1800
        8.750        -4.969     478.5600
       11.250        -4.969     567.7400
       13.750        -4.969    1724.5000
       16.250        -4.969    2552.3999
       18.750        -4.969    2818.0000
       21.250        -4.969    3208.5000
       23.750        -4.969    4736.3999
       26.250        -4.969   12197.0000
       28.750        -4.969    8193.2002
       31.250        -4.969     739.9600
       33.750        -4.969     709.4900
       36.250        -4.969     730.0900
       38.750        -4.969     600.8500
       41.250        -4.969     386.3800
